LabVIEW Measurement	
Writer_Version	2
Reader_Version	2
Separator	Tab
Decimal_Separator	.
Multi_Headings	No
X_Columns	No
Time_Pref	Absolute
Operator	mechlab
Description	Data file
Date	2024/02/09
Time	16:43:37.4739999771118164063
***End_of_Header***	
	
Channels	6						
Samples	1	1	1	1	1	1	
Date	2024/02/09	2024/02/09	2024/02/09	2024/02/09	2024/02/09	2024/02/09	
Time	16:43:37.4739999771118164063	16:43:37.5819997787475585938	16:43:37.6900000572204589844	16:43:37.7979998588562011719	16:43:37.9050002098083496094	16:43:38.0120000839233398438	
X_Dimension	Time	Time	Time	Time	Time	Time	
X0	0.0000000000000000E+0	0.0000000000000000E+0	0.0000000000000000E+0	0.0000000000000000E+0	0.0000000000000000E+0	0.0000000000000000E+0	
Delta_X	1.000000	1.000000	1.000000	1.000000	1.000000	1.000000	
***End_of_Header***							
X_Value	Untitled	Untitled 1	Untitled 2	Untitled 3	Untitled 4	Untitled 5	Comment
	0.000000	204.892104	-34.965982	23.453762	-1.098111E-6	1.408252E-5
	0.544000	358.581472	-34.948415	23.446991	-7.259761E-6	3.054127E-5
	1.088000	514.951721	-34.944953	23.447177	-1.197302E-5	4.546581E-5
	1.630000	645.868896	-34.938657	23.448956	-1.579163E-5	5.819647E-5
	2.172000	763.859875	-34.915133	23.446273	-1.951190E-5	6.879524E-5
	2.714000	855.755335	-34.937591	23.446627	-2.314008E-5	7.946740E-5
	3.253000	936.643884	-34.929057	23.446653	-2.614737E-5	8.745522E-5
	3.794000	1030.191347	-34.918627	23.450833	-2.941965E-5	9.620027E-5
	4.336000	1098.958772	-34.915358	23.446320	-3.198272E-5	0.000103
	4.885000	1169.154390	-34.904773	23.450410	-3.480332E-5	0.000111
	5.426000	1224.246905	-34.899395	23.452271	-3.617691E-5	0.000117
	5.970000	1290.969455	-34.898815	23.451561	-3.796481E-5	0.000123
	6.515000	1337.299594	-34.895775	23.452228	-3.966437E-5	0.000129
	7.057000	1379.878110	-34.891927	23.452638	-4.173344E-5	0.000134
	7.597000	1428.618628	-34.887593	23.451213	-4.357856E-5	0.000138
	8.139000	1470.063606	-34.881068	23.450952	-4.471822E-5	0.000142
	8.684000	1513.017285	-34.884656	23.450915	-4.608805E-5	0.000147
	9.229000	1552.913310	-34.878907	23.451572	-4.787467E-5	0.000151
	9.771000	1591.791727	-34.864110	23.454646	-4.936393E-5	0.000154
	10.319000	1632.810019	-34.867282	23.454149	-5.036299E-5	0.000158
	10.865000	1665.492622	-34.854369	23.453554	-5.240713E-5	0.000163
	11.407000	1700.930173	-34.867678	23.451931	-5.380432E-5	0.000166
	11.957000	1739.575121	-34.841784	23.456382	-5.456324E-5	0.000171
	12.501000	1771.462315	-34.841468	23.458245	-5.583600E-5	0.000173
	13.043000	1801.819877	-34.844882	23.453340	-5.726303E-5	0.000177
	13.585000	1830.556030	-34.832306	23.456004	-5.830811E-5	0.000181
	14.132000	1864.871314	-34.832815	23.456933	-5.946764E-5	0.000185
	14.673000	1897.322058	-34.840215	23.458176	-6.112234E-5	0.000189
	15.228000	1928.911377	-34.831376	23.452616	-6.235900E-5	0.000193
	15.767000	1953.440236	-34.812173	23.454587	-6.315275E-5	0.000195
	16.312000	1990.476656	-34.823792	23.457074	-6.399378E-5	0.000201
	16.856000	2016.205070	-34.797862	23.460844	-6.515454E-5	0.000204
	17.398000	2049.919773	-34.806019	23.455244	-6.619836E-5	0.000207
	17.938000	2086.089939	-34.798448	23.457234	-6.695727E-5	0.000210
	18.480000	2107.546654	-34.791820	23.459071	-6.788289E-5	0.000213
	19.024000	2142.737855	-34.790078	23.460301	-6.907101E-5	0.000217
	19.565000	2178.085241	-34.795923	23.456669	-6.981250E-5	0.000221
	20.110000	2199.498482	-34.774643	23.458208	-7.147836E-5	0.000224
	20.650000	2237.195060	-34.790365	23.460138	-7.209418E-5	0.000228
	21.193000	2259.600147	-34.776456	23.455643	-7.284438E-5	0.000232
	21.734000	2294.280936	-34.767594	23.459575	-7.379984E-5	0.000235
	22.277000	2320.336209	-34.765452	23.453071	-7.478144E-5	0.000239
	22.819000	2344.270928	-34.754787	23.452651	-7.605290E-5	0.000242
	23.361000	2381.845137	-34.753309	23.455625	-7.706185E-5	0.000245
	23.907000	2421.182449	-34.763021	23.459006	-7.823503E-5	0.000249
	24.448000	2438.737797	-34.748285	23.457712	-7.900760E-5	0.000252
	24.992000	2481.913682	-34.734344	23.457997	-8.021934E-5	0.000255
	25.535000	2498.535150	-34.733961	23.454112	-8.100808E-5	0.000259
	26.074000	2538.822444	-34.740308	23.454744	-8.300109E-5	0.000262
	26.620000	2563.539693	-34.739265	23.455177	-8.399013E-5	0.000264
	27.168000	2591.488491	-34.728602	23.457295	-8.537105E-5	0.000267
	27.707000	2622.726803	-34.719251	23.456229	-8.727322E-5	0.000270
	28.254000	2647.402188	-34.716024	23.455128	-8.821373E-5	0.000275
	28.805000	2671.847324	-34.717731	23.454733	-8.929730E-5	0.000279
	29.350000	2710.746680	-34.703880	23.459536	-9.037963E-5	0.000281
	29.894000	2742.862519	-34.703465	23.457511	-9.178168E-5	0.000284
	30.437000	2764.704060	-34.697034	23.459531	-9.376594E-5	0.000288
	30.976000	2788.593698	-34.687663	23.456823	-9.548769E-5	0.000290
	31.519000	2818.595424	-34.689121	23.452469	-9.640455E-5	0.000294
	32.058000	2848.413596	-34.692033	23.454551	-9.794466E-5	0.000297
	32.598000	2883.569379	-34.675297	23.453928	-9.885281E-5	0.000300
	33.143000	2920.704024	-34.682301	23.455622	-9.980947E-5	0.000303
	33.685000	2939.233509	-34.674884	23.452303	-0.000102	0.000308
	34.229000	2957.316985	-34.667474	23.453744	-0.000102	0.000311
	34.781000	2997.422338	-34.645148	23.454321	-0.000104	0.000313
	35.325000	3031.832628	-34.658850	23.447946	-0.000105	0.000317
	35.866000	3045.098567	-34.657182	23.455907	-0.000105	0.000319
	36.413000	3079.578094	-34.636369	23.452239	-0.000106	0.000324
	36.951000	3106.374035	-34.646726	23.456277	-0.000108	0.000327
	37.493000	3136.180937	-34.629481	23.451907	-0.000108	0.000331
	38.041000	3163.894658	-34.628689	23.452806	-0.000110	0.000334
	38.584000	3189.135205	-34.624464	23.455694	-0.000111	0.000338
	39.126000	3221.676125	-34.634273	23.452928	-0.000113	0.000342
	39.669000	3257.731980	-34.613798	23.453123	-0.000113	0.000345
	40.215000	3284.399111	-34.619959	23.453583	-0.000116	0.000348
	40.757000	3308.940858	-34.607142	23.457860	-0.000116	0.000352
	41.297000	3337.879897	-34.610488	23.451902	-0.000116	0.000357
	41.840000	3368.107047	-34.602456	23.456971	-0.000119	0.000360
	42.381000	3384.606148	-34.596347	23.456124	-0.000120	0.000363
	42.924000	3430.295469	-34.597136	23.459721	-0.000121	0.000366
	43.466000	3444.087925	-34.605902	23.456382	-0.000122	0.000369
	44.013000	3490.918836	-34.582390	23.455791	-0.000124	0.000374
	44.553000	3518.746880	-34.572475	23.457841	-0.000124	0.000378
	45.099000	3540.725286	-34.563928	23.455984	-0.000126	0.000382
	45.641000	3580.465143	-34.578120	23.452134	-0.000128	0.000385
	46.187000	3612.845052	-34.555897	23.453443	-0.000129	0.000389
	46.730000	3643.576179	-34.572539	23.454846	-0.000130	0.000392
	47.275000	3665.570688	-34.565822	23.452506	-0.000131	0.000397
	47.815000	3707.780501	-34.552548	23.455318	-0.000133	0.000400
	48.358000	3725.950928	-34.546165	23.455867	-0.000134	0.000404
	48.902000	3758.517614	-34.533558	23.453783	-0.000136	0.000407
	49.445000	3793.146890	-34.537744	23.453484	-0.000137	0.000413
	49.992000	3829.531219	-34.541148	23.450611	-0.000139	0.000416
	50.536000	3865.672417	-34.536272	23.451487	-0.000140	0.000421
	51.079000	3888.586317	-34.527030	23.450587	-0.000142	0.000424
	51.629000	3924.006173	-34.519124	23.451878	-0.000143	0.000429
	52.178000	3956.450491	-34.509531	23.455838	-0.000144	0.000432
	52.722000	3979.659047	-34.509740	23.452075	-0.000147	0.000437
	53.289000	4014.499254	-34.502704	23.453036	-0.000148	0.000442
	53.832000	4040.635045	-34.496859	23.445845	-0.000148	0.000444
	54.377000	4079.959492	-34.501181	23.452315	-0.000151	0.000450
	54.917000	4103.704225	-34.490921	23.458372	-0.000153	0.000454
	55.456000	4136.014903	-34.485916	23.451440	-0.000154	0.000458
	56.001000	4185.038835	-34.489108	23.452556	-0.000156	0.000462
	56.543000	4223.885072	-34.486931	23.450931	-0.000157	0.000466
	57.086000	4243.554542	-34.478387	23.453276	-0.000159	0.000470
	57.627000	4266.935386	-34.480822	23.451698	-0.000161	0.000474
	58.169000	4312.758360	-34.472655	23.450907	-0.000163	0.000479
	58.713000	4334.838211	-34.460630	23.452538	-0.000164	0.000483
	59.257000	4370.515695	-34.455397	23.454276	-0.000166	0.000488
	59.797000	4406.418598	-34.455587	23.452685	-0.000168	0.000492
	60.344000	4439.391047	-34.443508	23.454334	-0.000169	0.000497
	60.894000	4474.625744	-34.436993	23.450965	-0.000171	0.000502
	61.435000	4515.795417	-34.440413	23.451650	-0.000173	0.000507
	61.976000	4537.804423	-34.444052	23.449582	-0.000174	0.000512
	62.523000	4568.996058	-34.427828	23.452933	-0.000176	0.000516
	63.065000	4613.997866	-34.426785	23.452875	-0.000178	0.000520
	63.610000	4635.750861	-34.417166	23.451651	-0.000180	0.000525
	64.151000	4680.330813	-34.411411	23.449479	-0.000182	0.000530
	64.691000	4719.549000	-34.402678	23.451059	-0.000183	0.000535
	65.240000	4744.416006	-34.413540	23.453867	-0.000185	0.000540
	65.778000	4784.286300	-34.395818	23.449304	-0.000187	0.000546
	66.322000	4815.294383	-34.395660	23.452555	-0.000189	0.000551
	66.874000	4847.197703	-34.390205	23.452949	-0.000191	0.000557
	67.420000	4883.443573	-34.387317	23.452195	-0.000192	0.000561
	67.961000	4919.228943	-34.382873	23.454242	-0.000195	0.000567
	68.501000	4953.157821	-34.375830	23.452149	-0.000196	0.000572
	69.042000	4988.788619	-34.377363	23.452265	-0.000198	0.000578
	69.616000	5032.008008	-34.378258	23.455694	-0.000199	0.000582
	70.156000	5021.838362	-34.362916	23.453991	-0.000199	0.000580
	70.701000	5011.209824	-34.366571	23.456567	-0.000199	0.000582
	71.243000	5015.637711	-34.370078	23.455095	-0.000200	0.000582
	71.785000	5022.501739	-34.372316	23.456565	-0.000198	0.000575
	72.333000	4937.119213	-34.357252	23.455419	-0.000195	0.000568
	72.872000	4862.930385	-34.361342	23.456733	-0.000193	0.000560
	73.413000	4784.787054	-34.366719	23.455359	-0.000190	0.000553
	73.955000	4710.020189	-34.375160	23.456356	-0.000187	0.000545
	74.495000	4650.134244	-34.377524	23.456615	-0.000184	0.000539
	75.041000	4567.963958	-34.376274	23.455578	-0.000182	0.000531
	75.583000	4509.779933	-34.378429	23.455672	-0.000179	0.000525
	76.127000	4430.683410	-34.378235	23.450793	-0.000177	0.000519
	76.667000	4373.552419	-34.383507	23.456841	-0.000174	0.000511
	77.217000	4311.051612	-34.391242	23.454646	-0.000172	0.000504
	77.756000	4243.063450	-34.386776	23.455712	-0.000170	0.000498
	78.302000	4175.722565	-34.377727	23.450643	-0.000167	0.000490
	78.846000	4123.494455	-34.393467	23.452094	-0.000165	0.000483
	79.391000	4060.544425	-34.390985	23.450284	-0.000162	0.000477
	79.935000	3984.094982	-34.373047	23.451226	-0.000160	0.000469
	80.477000	3918.800591	-34.387020	23.452365	-0.000158	0.000461
	81.023000	3860.838778	-34.375308	23.449157	-0.000155	0.000454
	81.570000	3797.379948	-34.396424	23.455574	-0.000153	0.000447
	82.112000	3725.733559	-34.403560	23.448059	-0.000151	0.000441
	82.653000	3650.279191	-34.398527	23.455223	-0.000149	0.000434
	83.216000	3601.788223	-34.408349	23.448961	-0.000146	0.000427
	83.758000	3526.966643	-34.404342	23.451704	-0.000144	0.000421
	84.302000	3468.355950	-34.391587	23.449895	-0.000142	0.000414
	84.844000	3402.296751	-34.418103	23.450020	-0.000140	0.000407
	85.383000	3344.029020	-34.410951	23.451384	-0.000138	0.000400
	85.928000	3294.650870	-34.409485	23.451381	-0.000135	0.000392
	86.470000	3225.894691	-34.406829	23.451708	-0.000132	0.000385
	87.010000	3172.256113	-34.408851	23.450474	-0.000131	0.000379
	87.551000	3090.947289	-34.416589	23.448473	-0.000128	0.000373
	88.094000	3040.306792	-34.415349	23.447606	-0.000126	0.000366
	88.632000	2982.995488	-34.418177	23.444235	-0.000124	0.000359
	89.174000	2908.927465	-34.410690	23.447666	-0.000121	0.000352
	89.719000	2846.579647	-34.417713	23.449458	-0.000119	0.000344
	90.262000	2789.951045	-34.422106	23.451437	-0.000117	0.000337
	90.806000	2728.736767	-34.427564	23.449923	-0.000115	0.000331
	91.352000	2662.489194	-34.415610	23.446363	-0.000113	0.000324
	91.893000	2599.814521	-34.424888	23.449196	-0.000110	0.000317
	92.435000	2544.316240	-34.432089	23.445391	-0.000108	0.000310
	92.987000	2480.736670	-34.425204	23.450853	-0.000106	0.000303
	93.529000	2423.069532	-34.428846	23.444254	-0.000104	0.000295
	94.074000	2360.607401	-34.439473	23.449204	-0.000102	0.000289
	94.616000	2295.647944	-34.438188	23.451960	-9.858783E-5	0.000282
	95.159000	2227.366771	-34.446380	23.447491	-9.646426E-5	0.000275
	95.711000	2172.816865	-34.448293	23.446768	-9.478481E-5	0.000273
	96.254000	2175.707065	-34.445752	23.446167	-9.755031E-5	0.000280
	96.797000	2248.362986	-34.433174	23.442755	-9.994258E-5	0.000288
	97.343000	2321.938297	-34.441907	23.444715	-0.000102	0.000295
	97.882000	2392.716797	-34.424418	23.443584	-0.000104	0.000302
	98.427000	2454.241828	-34.428292	23.443486	-0.000108	0.000315
	98.971000	2605.441958	-34.432424	23.445148	-0.000114	0.000333
	99.512000	2780.472154	-34.417906	23.444882	-0.000119	0.000351
	100.058000	2949.965088	-34.423168	23.442439	-0.000125	0.000369
	100.599000	3118.422709	-34.424292	23.445127	-0.000131	0.000386
	101.142000	3289.387323	-34.402378	23.443352	-0.000137	0.000404
	101.686000	3446.287376	-34.409289	23.450553	-0.000143	0.000421
	102.232000	3606.483391	-34.405756	23.450046	-0.000149	0.000439
	102.773000	3765.423504	-34.393075	23.450965	-0.000155	0.000456
	103.328000	3930.525630	-34.394884	23.448566	-0.000161	0.000474
	103.870000	4091.244962	-34.393094	23.445599	-0.000167	0.000491
	104.411000	4243.560983	-34.385880	23.450600	-0.000172	0.000508
	104.954000	4404.396262	-34.382344	23.453772	-0.000178	0.000526
	105.497000	4555.809010	-34.376902	23.450634	-0.000184	0.000542
	106.039000	4678.005771	-34.366446	23.455519	-0.000189	0.000557
	106.585000	4824.829633	-34.356675	23.456005	-0.000194	0.000569
	107.125000	4918.782934	-34.366565	23.454239	-0.000197	0.000579
	107.668000	4997.027707	-34.357622	23.457805	-0.000200	0.000587
	108.211000	5059.303110	-34.347314	23.456640	-0.000202	0.000594
	108.751000	5110.351004	-34.347240	23.451836	-0.000205	0.000601
	109.295000	5154.341653	-34.340664	23.458858	-0.000207	0.000607
	109.835000	5201.621820	-34.337437	23.456002	-0.000210	0.000614
	110.378000	5251.737446	-34.329425	23.458879	-0.000212	0.000620
	110.922000	5291.359786	-34.329615	23.457142	-0.000215	0.000627
	111.466000	5331.899908	-34.332471	23.459016	-0.000217	0.000635
	112.013000	5377.877474	-34.312190	23.456300	-0.000220	0.000641
	112.552000	5421.567032	-34.310251	23.452456	-0.000223	0.000648
	113.098000	5463.792972	-34.309891	23.457412	-0.000225	0.000655
	113.646000	5498.984209	-34.312441	23.456285	-0.000228	0.000661
	114.190000	5532.998433	-34.304935	23.455358	-0.000229	0.000669
	114.734000	5567.817727	-34.290028	23.457829	-0.000232	0.000677
	115.281000	5618.240898	-34.289123	23.460921	-0.000235	0.000684
	115.818000	5653.490102	-34.286617	23.456892	-0.000238	0.000692
	116.360000	5693.729133	-34.279072	23.459258	-0.000240	0.000699
	116.907000	5735.692625	-34.292910	23.460583	-0.000244	0.000705
	117.449000	5780.377257	-34.271488	23.457388	-0.000246	0.000714
	117.992000	5811.517383	-34.267869	23.455636	-0.000249	0.000721
	118.534000	5841.219654	-34.262945	23.452434	-0.000252	0.000729
	119.078000	5873.789587	-34.270300	23.460866	-0.000255	0.000738
	119.623000	5915.585628	-34.260398	23.459718	-0.000259	0.000746
	120.165000	5951.324319	-34.251529	23.458710	-0.000262	0.000754
	120.707000	5982.039371	-34.257180	23.458614	-0.000265	0.000762
	121.254000	6028.754396	-34.245925	23.461995	-0.000269	0.000772
	121.793000	6069.410460	-34.233672	23.459947	-0.000272	0.000781
	122.337000	6104.815855	-34.237253	23.457564	-0.000276	0.000790
	122.890000	6136.865716	-34.224050	23.461861	-0.000280	0.000800
	123.431000	6173.280670	-34.226968	23.461383	-0.000284	0.000811
	123.984000	6210.313919	-34.224659	23.458277	-0.000289	0.000821
	124.529000	6252.929529	-34.216836	23.469006	-0.000293	0.000832
	125.075000	6282.614095	-34.218437	23.463755	-0.000298	0.000843
	125.618000	6315.374031	-34.197357	23.462029	-0.000303	0.000855
	126.161000	6351.787378	-34.213487	23.464908	-0.000307	0.000866
	126.704000	6381.085511	-34.196110	23.465106	-0.000312	0.000880
	127.248000	6424.575431	-34.197254	23.464922	-0.000318	0.000893
	127.795000	6458.869834	-34.181944	23.461617	-0.000324	0.000906
	128.340000	6487.887804	-34.164487	23.460800	-0.000329	0.000919
	128.890000	6514.640306	-34.174930	23.463262	-0.000335	0.000935
	129.431000	6553.386752	-34.188823	23.464510	-0.000341	0.000950
	129.978000	6584.958408	-34.184765	23.469062	-0.000348	0.000966
	130.529000	6613.396729	-34.173349	23.465597	-0.000355	0.000983
	131.073000	6653.828995	-34.150369	23.465631	-0.000363	0.000999
	131.615000	6671.261999	-34.159109	23.466689	-0.000371	0.001018
	132.157000	6703.844825	-34.151255	23.469468	-0.000379	0.001036
	132.702000	6728.526687	-34.150330	23.470741	-0.000387	0.001056
	133.244000	6759.922841	-34.135942	23.467112	-0.000396	0.001076
	133.786000	6788.345062	-34.136116	23.467003	-0.000405	0.001098
	134.327000	6815.331039	-34.128123	23.469315	-0.000416	0.001122
	134.871000	6844.803074	-34.130915	23.468286	-0.000427	0.001144
	135.415000	6867.174384	-34.130532	23.468424	-0.000439	0.001168
	135.955000	6888.122329	-34.128487	23.467465	-0.000449	0.001192
	136.488000	6904.966023	-34.124748	23.473860	-0.000462	0.001218
	137.031000	6951.302686	-34.105368	23.468635	-0.000476	0.001248
	137.574000	6971.757929	-34.106534	23.467437	-0.000489	0.001277
	138.119000	6978.378832	-34.110089	23.470793	-0.000504	0.001308
	138.665000	7009.069748	-34.088926	23.470386	-0.000518	0.001338
	139.205000	7030.225403	-34.101726	23.475194	-0.000532	0.001370
	139.750000	7047.874169	-34.088140	23.469007	-0.000549	0.001403
	140.301000	7066.204025	-34.090217	23.469980	-0.000566	0.001440
	140.844000	7088.694489	-34.071191	23.470313	-0.000584	0.001475
	141.387000	7108.446101	-34.071983	23.470059	-0.000602	0.001511
	141.930000	7120.921481	-34.060097	23.472474	-0.000620	0.001548
	142.473000	7143.650247	-34.069768	23.467218	-0.000639	0.001589
	143.033000	7158.645500	-34.060303	23.471938	-0.000699	0.001748
	143.573000	7400.947746	-34.035877	23.476351	-0.000836	0.002016
	144.117000	7468.570504	-34.015815	23.476762	-0.000981	0.002292
	144.667000	7534.063045	-33.996454	23.476805	-0.001129	0.002583
	145.213000	7602.228426	-33.965320	23.481810	-0.001248	0.002874
	145.755000	7657.190640	-33.948542	23.486988	-0.001384	0.003114
	146.302000	7706.997181	-33.904633	23.489732	-0.001539	0.003403
	146.846000	7770.380444	-33.893372	23.496131	-0.001700	0.003705
	147.405000	7829.392173	-33.874916	23.505362	-0.001851	0.003951
	147.947000	7871.803333	-33.849067	23.514037	-0.002005	0.004223
	148.489000	7925.862266	-33.832656	23.523333	-0.002163	0.004452
	149.031000	7966.858112	-33.805873	23.529585	-0.002323	0.004726
	149.572000	8016.729067	-33.797877	23.535544	-0.002476	0.004990
	150.122000	8050.355292	-33.764112	23.550186	-0.002631	0.005236
	150.661000	8105.103372	-33.752664	23.554804	-0.002786	0.005504
	151.204000	8148.870279	-33.717543	23.563537	-0.002938	0.005749
	151.745000	8194.440547	-33.700846	23.573433	-0.003090	0.005884
	152.290000	8234.922765	-33.658473	23.581082	-0.001675	0.002825
	152.838000	8281.383445	-33.655304	23.585447	-0.001651	0.002742
	153.385000	8320.851274	-33.625274	23.591562	-0.000628	0.001148
	153.928000	8366.609935	-33.595480	23.601154	-0.000607	0.001097
	154.506000	8420.029658	-33.582502	23.607205	-0.000583	0.001068
	155.050000	8448.587160	-33.558939	23.616227	-0.000548	0.001039
	155.590000	8482.738300	-33.533563	23.623631	-0.000537	0.001027
	156.135000	8534.807117	-33.507694	23.628204	-0.000528	0.000959
	156.676000	8559.687054	-33.490053	23.640405	-0.000380	0.000775
	157.243000	8606.160624	-33.464004	23.648279	-0.000263	0.000699
	157.780000	8644.731612	-33.446341	23.659177	-0.000250	0.000691
	158.322000	8683.648783	-33.428713	23.669160	-0.000149	0.000522
	158.867000	8729.219066	-33.393715	23.671925	-0.000143	0.000509
	159.409000	8755.802538	-33.367205	23.683895	-0.000146	0.000505
	159.951000	8798.489057	-33.350340	23.695578	-0.000149	0.000503
	160.496000	8836.845901	-33.334619	23.697811	-0.000151	0.000501
	161.038000	8872.182116	-33.294764	23.704930	-0.000152	0.000497
	161.578000	8907.004696	-33.287283	23.713145	-0.000153	0.000494
