LabVIEW Measurement	
Writer_Version	2
Reader_Version	2
Separator	Tab
Decimal_Separator	.
Multi_Headings	No
X_Columns	No
Time_Pref	Absolute
Operator	mechlab
Description	Data file
Date	2024/02/09
Time	16:13:53.8600001335144042969
***End_of_Header***	
	
Channels	6						
Samples	1	1	1	1	1	1	
Date	2024/02/09	2024/02/09	2024/02/09	2024/02/09	2024/02/09	2024/02/09	
Time	16:13:53.8600001335144042969	16:13:53.9679999351501464844	16:13:54.0770001411437988281	16:13:54.1859998703002929687	16:13:54.2940001487731933594	16:13:54.4029998779296875	
X_Dimension	Time	Time	Time	Time	Time	Time	
X0	0.0000000000000000E+0	0.0000000000000000E+0	0.0000000000000000E+0	0.0000000000000000E+0	0.0000000000000000E+0	0.0000000000000000E+0	
Delta_X	1.000000	1.000000	1.000000	1.000000	1.000000	1.000000	
***End_of_Header***							
X_Value	Untitled	Untitled 1	Untitled 2	Untitled 3	Untitled 4	Untitled 5	Comment
	0.000000	24.350451	-39.238777	22.764761	-1.950784E-6	1.399709E-5
	0.551000	164.476008	-39.247981	22.767190	-4.788504E-6	2.426713E-5
	1.096000	254.379723	-39.238642	22.764673	-7.443570E-6	3.137017E-5
	1.639000	333.149328	-39.240046	22.764248	-9.556929E-6	3.735381E-5
	2.176000	379.737087	-39.233889	22.761588	-1.069622E-5	4.151024E-5
	2.720000	420.924440	-39.231280	22.763444	-1.170507E-5	4.487366E-5
	3.262000	461.348587	-39.242445	22.763749	-1.293754E-5	4.800199E-5
	3.806000	488.297482	-39.215491	22.764406	-1.407186E-5	5.068935E-5
	4.348000	520.947878	-39.205634	22.762208	-1.492539E-5	5.291259E-5
	4.892000	540.309799	-39.203650	22.766162	-1.526953E-5	5.546841E-5
	5.436000	561.924303	-39.219410	22.766549	-1.553044E-5	5.743706E-5
	5.977000	586.702731	-39.201547	22.765739	-1.621749E-5	6.027797E-5
	6.520000	609.515179	-39.193116	22.768722	-1.665605E-5	6.175569E-5
	7.063000	621.969604	-39.192466	22.762454	-1.709214E-5	6.308113E-5
	7.607000	645.261873	-39.192166	22.765368	-1.790839E-5	6.474525E-5
	8.149000	655.883960	-39.179800	22.761617	-1.846250E-5	6.636065E-5
	8.690000	675.588840	-39.185417	22.766352	-1.863022E-5	6.811858E-5
	9.232000	687.062690	-39.172014	22.766785	-1.899425E-5	6.930394E-5
	9.775000	707.959072	-39.195651	22.768247	-2.033106E-5	7.064159E-5
	10.315000	728.652578	-39.178332	22.762222	-2.082677E-5	7.223508E-5
	10.859000	740.163461	-39.159596	22.769212	-2.094853E-5	7.374938E-5
	11.406000	756.974921	-39.160591	22.766608	-2.113737E-5	7.532339E-5
	11.949000	775.488299	-39.151197	22.765705	-2.208531E-5	7.685597E-5
	12.492000	787.693152	-39.145179	22.769139	-2.257233E-5	7.839831E-5
	13.034000	800.443842	-39.137128	22.764562	-2.345815E-5	7.946918E-5
	13.576000	817.567670	-39.135350	22.768130	-2.370911E-5	8.098229E-5
	14.119000	836.006981	-39.141449	22.764034	-2.374762E-5	8.198981E-5
	14.662000	841.890428	-39.142064	22.762649	-2.427439E-5	8.300099E-5
	15.201000	863.814080	-39.122688	22.765748	-2.485707E-5	8.419248E-5
	15.746000	880.516051	-39.110515	22.767244	-2.531675E-5	8.550702E-5
	16.291000	897.712335	-39.125731	22.766182	-2.584227E-5	8.682644E-5
	16.836000	906.453779	-39.112676	22.767153	-2.618890E-5	8.808007E-5
	17.379000	917.032392	-39.105288	22.766196	-2.685357E-5	8.943361E-5
	17.922000	932.887430	-39.095814	22.764385	-2.660261E-5	9.061293E-5
	18.466000	944.779916	-39.101405	22.768001	-2.698650E-5	9.177033E-5
	19.015000	965.154615	-39.091093	22.767012	-2.749339E-5	9.355029E-5
	19.559000	973.791400	-39.084794	22.766679	-2.827608E-5	9.458951E-5
	20.104000	991.053700	-39.081902	22.767095	-2.868731E-5	9.662533E-5
	20.646000	999.923955	-39.081204	22.765576	-2.920910E-5	9.820550E-5
	21.188000	1025.161273	-39.084743	22.765472	-2.945012E-5	9.954201E-5
	21.734000	1033.467980	-39.068577	22.763493	-2.989489E-5	0.000101
	22.275000	1045.230045	-39.070309	22.765309	-3.032723E-5	0.000103
	22.819000	1055.898826	-39.060181	22.767573	-3.029866E-5	0.000104
	23.364000	1079.638714	-39.055457	22.765847	-3.038562E-5	0.000106
	23.905000	1098.472510	-39.051847	22.766401	-3.029741E-5	0.000108
	24.446000	1112.086235	-39.041800	22.766822	-3.054713E-5	0.000110
	24.989000	1129.277688	-39.047989	22.766992	-3.099935E-5	0.000111
	25.533000	1150.438135	-39.029157	22.767694	-3.117204E-5	0.000113
	26.076000	1163.195266	-39.036225	22.767690	-3.172986E-5	0.000115
	26.627000	1178.961747	-39.030719	22.765771	-3.226780E-5	0.000117
	27.170000	1190.619153	-39.027901	22.766294	-3.280326E-5	0.000118
	27.716000	1216.928824	-39.036335	22.766413	-3.269766E-5	0.000120
	28.261000	1226.673385	-39.008630	22.772550	-3.292128E-5	0.000122
	28.807000	1250.191075	-39.015808	22.767954	-3.347786E-5	0.000123
	29.351000	1270.923224	-39.013226	22.771056	-3.378721E-5	0.000125
	29.893000	1285.340409	-38.975471	22.767780	-3.443571E-5	0.000127
	30.439000	1299.202096	-38.995243	22.766684	-3.515007E-5	0.000129
	30.981000	1317.833014	-38.991089	22.772672	-3.538115E-5	0.000131
	31.523000	1334.353040	-38.983425	22.765095	-3.572403E-5	0.000132
	32.065000	1353.958092	-38.975226	22.770445	-3.616383E-5	0.000135
	32.610000	1372.070546	-38.980449	22.765829	-3.678749E-5	0.000136
	33.150000	1399.468671	-38.984011	22.770027	-3.713286E-5	0.000139
	33.692000	1415.410658	-38.954429	22.765196	-3.695644E-5	0.000141
	34.241000	1431.375186	-38.962567	22.767650	-3.813295E-5	0.000142
	34.783000	1449.028750	-38.965175	22.768268	-3.887587E-5	0.000144
	35.323000	1473.200157	-38.953418	22.762737	-3.944610E-5	0.000146
	35.868000	1498.811028	-38.949982	22.768824	-3.997534E-5	0.000147
	36.411000	1514.883436	-38.941309	22.765782	-4.074062E-5	0.000149
	36.953000	1539.471869	-38.955456	22.769880	-4.132079E-5	0.000151
	37.499000	1555.895288	-38.941126	22.769465	-4.221652E-5	0.000152
	38.039000	1566.974654	-38.934444	22.767787	-4.316069E-5	0.000155
	38.583000	1595.393608	-38.927159	22.770751	-4.322778E-5	0.000157
	39.126000	1613.981054	-38.920690	22.768252	-4.394212E-5	0.000159
	39.671000	1637.725774	-38.917096	22.766494	-4.489871E-5	0.000161
	40.211000	1655.231206	-38.912211	22.773943	-4.560063E-5	0.000162
	40.755000	1680.144888	-38.905528	22.768959	-4.618203E-5	0.000165
	41.299000	1701.062204	-38.895610	22.768742	-4.713738E-5	0.000166
	41.847000	1721.018268	-38.896669	22.767420	-4.731006E-5	0.000168
	42.390000	1740.054942	-38.905055	22.771083	-4.805794E-5	0.000171
	42.931000	1766.433851	-38.892963	22.770004	-4.898844E-5	0.000173
	43.472000	1782.736509	-38.884409	22.769494	-4.976240E-5	0.000176
	44.017000	1805.758277	-38.885575	22.768347	-5.045313E-5	0.000179
	44.568000	1834.117657	-38.881031	22.767581	-5.092521E-5	0.000180
	45.111000	1858.831682	-38.868649	22.771537	-5.192899E-5	0.000183
	45.656000	1886.989795	-38.874752	22.766040	-5.256506E-5	0.000185
	46.199000	1908.895737	-38.848300	22.768112	-5.358747E-5	0.000187
	46.743000	1928.362319	-38.860988	22.768710	-5.420987E-5	0.000189
	47.286000	1956.615431	-38.854415	22.769640	-5.467946E-5	0.000192
	47.831000	1975.705240	-38.854927	22.769367	-5.551304E-5	0.000195
	48.377000	1995.139619	-38.843350	22.769932	-5.606462E-5	0.000197
	48.920000	2025.347440	-38.851643	22.765146	-5.686218E-5	0.000199
	49.463000	2050.315868	-38.836543	22.771294	-5.743736E-5	0.000202
	50.003000	2068.893653	-38.846580	22.769689	-5.812187E-5	0.000204
	50.547000	2105.131445	-38.834942	22.774033	-5.892811E-5	0.000207
	51.089000	2122.925093	-38.833251	22.767420	-6.014929E-5	0.000209
	51.635000	2151.041343	-38.814960	22.769854	-6.066111E-5	0.000211
	52.177000	2183.397090	-38.815768	22.768223	-6.151456E-5	0.000214
	52.718000	2200.520920	-38.810300	22.773073	-6.263386E-5	0.000216
	53.257000	2231.462965	-38.807115	22.770592	-6.357550E-5	0.000218
	53.802000	2256.866131	-38.805006	22.773060	-6.447491E-5	0.000220
	54.341000	2285.809993	-38.805238	22.773886	-6.584018E-5	0.000223
	54.881000	2311.665609	-38.807872	22.770717	-6.626503E-5	0.000226
	55.426000	2332.700468	-38.789796	22.766979	-6.752967E-5	0.000228
	55.974000	2357.926519	-38.790073	22.773324	-6.816571E-5	0.000232
	56.516000	2384.907622	-38.773276	22.770629	-6.885268E-5	0.000234
	57.057000	2421.018215	-38.770539	22.769413	-7.008749E-5	0.000237
	57.602000	2438.494666	-38.765422	22.775039	-7.090490E-5	0.000239
	58.146000	2470.662028	-38.766665	22.772753	-7.227014E-5	0.000242
	58.692000	2494.459887	-38.753584	22.771552	-7.311736E-5	0.000244
	59.244000	2537.445775	-38.750834	22.770131	-7.361054E-5	0.000247
	59.786000	2556.566179	-38.755429	22.773187	-7.457577E-5	0.000250
	60.330000	2584.299219	-38.741537	22.772065	-7.571988E-5	0.000253
	60.873000	2607.665560	-38.751017	22.770956	-7.677455E-5	0.000255
	61.420000	2635.139367	-38.738368	22.772758	-7.706151E-5	0.000258
	61.963000	2661.365317	-38.727564	22.775166	-7.845779E-5	0.000261
	62.504000	2698.680296	-38.732674	22.772368	-7.959319E-5	0.000264
	63.046000	2723.230090	-38.725332	22.774775	-7.996959E-5	0.000267
	63.599000	2752.819621	-38.729283	22.772162	-8.047518E-5	0.000270
	64.137000	2782.140259	-38.715800	22.772775	-8.130997E-5	0.000273
	64.682000	2803.485877	-38.705237	22.775427	-8.353853E-5	0.000276
	65.225000	2843.673345	-38.720650	22.772603	-8.421927E-5	0.000279
	65.764000	2869.485490	-38.710834	22.775168	-8.493728E-5	0.000281
	66.305000	2897.442340	-38.709494	22.771448	-8.599068E-5	0.000284
	66.844000	2925.486138	-38.694552	22.773841	-8.694346E-5	0.000286
	67.386000	2960.989713	-38.683851	22.775616	-8.830866E-5	0.000290
	67.929000	2980.058594	-38.680064	22.778264	-9.038937E-5	0.000293
	68.475000	3020.147846	-38.672409	22.777807	-9.094340E-5	0.000296
	69.018000	3040.471026	-38.672976	22.770313	-9.151605E-5	0.000299
	69.559000	3070.319792	-38.666252	22.771756	-9.308869E-5	0.000301
	70.102000	3100.983288	-38.663215	22.780520	-9.463399E-5	0.000304
	70.651000	3144.136636	-38.672441	22.767940	-9.557557E-5	0.000307
	71.194000	3169.262864	-38.662365	22.774009	-9.672212E-5	0.000310
	71.739000	3200.316014	-38.660346	22.779456	-9.814319E-5	0.000314
	72.282000	3228.617437	-38.654694	22.777731	-9.959158E-5	0.000317
	72.824000	3262.361131	-38.642879	22.774334	-0.000100	0.000320
	73.367000	3285.812814	-38.634074	22.776026	-0.000101	0.000323
	73.913000	3315.854798	-38.639877	22.774920	-0.000103	0.000326
	74.455000	3354.061800	-38.623727	22.772263	-0.000104	0.000329
	74.997000	3383.437186	-38.612521	22.779290	-0.000105	0.000331
	75.539000	3413.907468	-38.636432	22.775609	-0.000106	0.000335
	76.079000	3449.232321	-38.611947	22.774226	-0.000108	0.000337
	76.631000	3483.381773	-38.608205	22.776290	-0.000108	0.000340
	77.174000	3503.865969	-38.608808	22.777277	-0.000110	0.000345
	77.716000	3543.600996	-38.597598	22.777670	-0.000111	0.000348
	78.259000	3570.355076	-38.592078	22.778540	-0.000112	0.000351
	78.801000	3614.762729	-38.596525	22.772223	-0.000114	0.000354
	79.343000	3642.906361	-38.592722	22.778203	-0.000115	0.000358
	79.886000	3671.008129	-38.571964	22.773712	-0.000116	0.000360
	80.429000	3708.849633	-38.586897	22.779895	-0.000117	0.000364
	80.970000	3732.175728	-38.566103	22.778601	-0.000118	0.000367
	81.512000	3768.754883	-38.571871	22.778174	-0.000119	0.000370
	82.054000	3795.542778	-38.568763	22.778889	-0.000120	0.000374
	82.597000	3830.568149	-38.562467	22.777195	-0.000122	0.000378
	83.144000	3864.563031	-38.562744	22.778548	-0.000123	0.000381
	83.687000	3904.050100	-38.560715	22.776921	-0.000124	0.000385
	84.231000	3939.561734	-38.546243	22.776142	-0.000125	0.000389
	84.778000	3973.257131	-38.552565	22.776659	-0.000126	0.000393
	85.319000	3998.723103	-38.540534	22.776475	-0.000128	0.000397
	85.860000	4038.978211	-38.546121	22.780570	-0.000129	0.000400
	86.404000	4070.978131	-38.533529	22.775129	-0.000129	0.000404
	86.945000	4106.576715	-38.531439	22.778781	-0.000131	0.000407
	87.490000	4136.634807	-38.516465	22.776297	-0.000132	0.000411
	88.040000	4182.262953	-38.508685	22.779459	-0.000133	0.000414
	88.580000	4208.464762	-38.507773	22.777826	-0.000134	0.000418
	89.125000	4240.892981	-38.501410	22.780699	-0.000136	0.000422
	89.669000	4279.075841	-38.500325	22.777743	-0.000137	0.000426
	90.211000	4309.204782	-38.500273	22.779702	-0.000138	0.000430
	90.758000	4343.370343	-38.494010	22.780950	-0.000140	0.000434
	91.301000	4384.045702	-38.489781	22.778891	-0.000142	0.000437
	91.845000	4422.036957	-38.479508	22.780771	-0.000143	0.000441
	92.387000	4449.615437	-38.471342	22.777979	-0.000143	0.000445
	92.924000	4482.251367	-38.472788	22.781378	-0.000145	0.000449
	93.471000	4526.010146	-38.474279	22.777772	-0.000146	0.000453
	94.011000	4558.844124	-38.471783	22.782844	-0.000148	0.000456
	94.553000	4594.821097	-38.465381	22.784534	-0.000149	0.000461
	95.093000	4634.055383	-38.455794	22.784702	-0.000151	0.000464
	95.638000	4664.239072	-38.447415	22.782865	-0.000153	0.000468
	96.177000	4706.408645	-38.443048	22.779726	-0.000153	0.000473
	96.722000	4737.938412	-38.444310	22.779796	-0.000155	0.000476
	97.264000	4783.104457	-38.443818	22.782871	-0.000157	0.000481
	97.810000	4808.718569	-38.432402	22.780192	-0.000158	0.000484
	98.353000	4858.212673	-38.431007	22.782068	-0.000159	0.000489
	98.890000	4891.837234	-38.414197	22.786494	-0.000161	0.000493
	99.436000	4930.509586	-38.419449	22.783674	-0.000163	0.000498
	99.996000	4974.540486	-38.428833	22.785013	-0.000164	0.000502
	100.541000	5006.978375	-38.427858	22.780892	-0.000166	0.000506
	101.085000	5039.788207	-38.415182	22.781894	-0.000167	0.000510
	101.628000	5083.954361	-38.397876	22.780726	-0.000169	0.000515
	102.173000	5122.341720	-38.398260	22.781549	-0.000171	0.000519
	102.717000	5159.977145	-38.397564	22.783402	-0.000172	0.000523
	103.258000	5198.844328	-38.373009	22.781552	-0.000173	0.000527
	103.797000	5230.341898	-38.389542	22.782811	-0.000175	0.000532
	104.340000	5266.809972	-38.382338	22.782156	-0.000176	0.000537
	104.885000	5310.800624	-38.367892	22.782539	-0.000177	0.000541
	105.428000	5364.246023	-38.355552	22.784406	-0.000179	0.000546
	105.969000	5400.672236	-38.368162	22.780353	-0.000180	0.000549
	106.513000	5430.756105	-38.353227	22.778945	-0.000182	0.000554
	107.055000	5474.294311	-38.354103	22.780325	-0.000183	0.000559
	107.602000	5505.822477	-38.344477	22.786346	-0.000185	0.000562
	108.147000	5560.053629	-38.349192	22.784885	-0.000186	0.000567
	108.686000	5581.737395	-38.344445	22.788713	-0.000188	0.000572
	109.229000	5632.233022	-38.336838	22.782486	-0.000190	0.000574
	109.771000	5670.702508	-38.341653	22.783254	-0.000191	0.000579
	110.312000	5712.055756	-38.342645	22.785288	-0.000193	0.000583
	110.854000	5753.576461	-38.324646	22.787336	-0.000195	0.000588
	111.397000	5784.143376	-38.314673	22.786801	-0.000196	0.000592
	111.936000	5823.318107	-38.312548	22.790436	-0.000198	0.000596
	112.479000	5873.019939	-38.305550	22.780364	-0.000200	0.000601
	113.022000	5921.018244	-38.309981	22.786956	-0.000202	0.000605
	113.568000	5954.266047	-38.305489	22.786359	-0.000203	0.000610
	114.107000	5993.706453	-38.306764	22.785888	-0.000205	0.000615
	114.649000	6027.277896	-38.290920	22.783633	-0.000207	0.000619
	115.191000	6074.081480	-38.281391	22.785760	-0.000207	0.000618
	115.735000	6058.873696	-38.283932	22.783301	-0.000207	0.000618
	116.279000	6060.462906	-38.283024	22.782628	-0.000207	0.000619
	116.817000	6073.482507	-38.279275	22.785628	-0.000207	0.000621
	117.359000	6040.444020	-38.276403	22.787607	-0.000205	0.000612
	117.899000	5957.888865	-38.296707	22.785415	-0.000202	0.000605
	118.444000	5883.099422	-38.296459	22.784872	-0.000200	0.000599
	118.985000	5815.650615	-38.293271	22.787302	-0.000197	0.000593
	119.528000	5747.664023	-38.292781	22.784567	-0.000196	0.000588
	120.069000	5690.375209	-38.309359	22.782873	-0.000194	0.000581
	120.613000	5628.341312	-38.292533	22.783940	-0.000192	0.000576
	121.152000	5566.735713	-38.300578	22.783259	-0.000189	0.000570
	121.694000	5522.057526	-38.307991	22.786462	-0.000188	0.000565
	122.235000	5451.465735	-38.301189	22.786673	-0.000187	0.000559
	122.774000	5397.469666	-38.314760	22.784309	-0.000185	0.000553
	123.315000	5330.652048	-38.309166	22.784908	-0.000182	0.000548
	123.859000	5274.215009	-38.317932	22.782454	-0.000181	0.000543
	124.410000	5210.669200	-38.307714	22.786288	-0.000179	0.000537
	124.951000	5146.332814	-38.324279	22.788280	-0.000176	0.000531
	125.497000	5084.601637	-38.318563	22.782615	-0.000175	0.000525
	126.042000	5012.799033	-38.319825	22.779475	-0.000172	0.000519
	126.585000	4971.933669	-38.310354	22.778854	-0.000170	0.000514
	127.127000	4902.277385	-38.333966	22.783381	-0.000168	0.000508
	127.668000	4839.634874	-38.319136	22.781997	-0.000166	0.000502
	128.209000	4787.324635	-38.314860	22.784095	-0.000164	0.000497
	128.751000	4732.116145	-38.328237	22.779240	-0.000162	0.000492
	129.295000	4667.138934	-38.328862	22.782602	-0.000161	0.000486
	129.837000	4607.700608	-38.333760	22.780200	-0.000158	0.000479
	130.379000	4550.873930	-38.322524	22.782353	-0.000157	0.000474
	130.919000	4490.017073	-38.330356	22.776493	-0.000155	0.000467
	131.463000	4425.485877	-38.345491	22.779435	-0.000154	0.000462
	132.003000	4374.673076	-38.321097	22.784138	-0.000152	0.000456
	132.546000	4312.940306	-38.329812	22.781876	-0.000150	0.000450
	133.088000	4256.118465	-38.339180	22.779131	-0.000148	0.000443
	133.647000	4189.824171	-38.340526	22.780362	-0.000146	0.000438
	134.187000	4125.088494	-38.332066	22.779519	-0.000144	0.000432
	134.732000	4057.821678	-38.342213	22.779124	-0.000142	0.000426
	135.274000	4004.329610	-38.338062	22.778609	-0.000141	0.000420
	135.817000	3948.921477	-38.351636	22.783272	-0.000139	0.000414
	136.362000	3893.640546	-38.352473	22.780018	-0.000137	0.000408
	136.904000	3829.072329	-38.345784	22.782270	-0.000135	0.000403
	137.447000	3767.737275	-38.361886	22.777506	-0.000133	0.000396
	137.994000	3706.448915	-38.352367	22.776475	-0.000132	0.000390
	138.538000	3643.965833	-38.357046	22.778269	-0.000130	0.000383
	139.080000	3584.556509	-38.355342	22.777514	-0.000128	0.000378
	139.622000	3521.432593	-38.360920	22.782763	-0.000126	0.000373
	140.163000	3471.304115	-38.356647	22.781950	-0.000123	0.000368
	140.708000	3400.234163	-38.370591	22.777440	-0.000121	0.000361
	141.254000	3345.652040	-38.363342	22.780198	-0.000120	0.000356
	141.796000	3284.146319	-38.364565	22.779646	-0.000118	0.000350
	142.340000	3229.881396	-38.382899	22.779391	-0.000117	0.000344
	142.886000	3171.911543	-38.374571	22.775773	-0.000115	0.000339
	143.427000	3119.839631	-38.382268	22.776351	-0.000116	0.000344
	143.971000	3190.305777	-38.365168	22.775118	-0.000118	0.000351
	144.514000	3260.638282	-38.379978	22.776339	-0.000120	0.000356
	145.051000	3335.139439	-38.367750	22.773794	-0.000122	0.000363
	145.595000	3392.455578	-38.356054	22.774007	-0.000126	0.000376
	146.138000	3550.617984	-38.359307	22.777086	-0.000131	0.000392
	146.682000	3706.468237	-38.362775	22.776537	-0.000136	0.000409
	147.226000	3883.667340	-38.355710	22.773490	-0.000141	0.000426
	147.779000	4040.182595	-38.344210	22.775627	-0.000145	0.000441
	148.320000	4200.085593	-38.339679	22.775398	-0.000151	0.000456
	148.864000	4361.532723	-38.327677	22.779855	-0.000155	0.000472
	149.411000	4515.265680	-38.328755	22.777622	-0.000160	0.000486
	149.955000	4677.542051	-38.331866	22.777081	-0.000165	0.000501
	150.500000	4816.237925	-38.317909	22.784573	-0.000170	0.000514
	151.039000	4962.807393	-38.328237	22.780021	-0.000174	0.000527
	151.579000	5109.560425	-38.322273	22.783117	-0.000178	0.000540
	152.124000	5258.578933	-38.308371	22.780230	-0.000183	0.000555
	152.666000	5393.170591	-38.309050	22.779416	-0.000188	0.000568
	153.205000	5534.157734	-38.299541	22.786040	-0.000191	0.000580
	153.748000	5675.186750	-38.288830	22.781787	-0.000195	0.000593
	154.298000	5797.290178	-38.294417	22.781771	-0.000200	0.000605
	154.840000	5926.020952	-38.298687	22.783043	-0.000203	0.000616
	155.387000	6026.364946	-38.286076	22.784774	-0.000206	0.000625
	155.934000	6118.568070	-38.273527	22.785417	-0.000209	0.000630
	156.477000	6161.715025	-38.267827	22.786827	-0.000210	0.000635
	157.023000	6212.125328	-38.268719	22.784188	-0.000212	0.000641
	157.565000	6277.435880	-38.251951	22.782800	-0.000214	0.000645
	158.107000	6308.832026	-38.252331	22.786033	-0.000216	0.000650
	158.650000	6355.070456	-38.266474	22.783021	-0.000217	0.000655
	159.192000	6404.447053	-38.249751	22.785491	-0.000219	0.000660
